File: data/photocurrent/Photocurrent-MC.DTA
EXPLAIN
TAG	MULTI_STEP_CHRONOA
TITLE	LABEL	Chronoamperometry Scan	Test &Identifier
DATE	LABEL	5/8/2025	Date
TIME	LABEL	12:44:52	Time
PSTAT	PSTAT	IFC5000-19505	Potentiostat
NOTES	NOTES	1	&Notes...

AREA	QUANT	5.00000E-001	Sample &Area (cm^2)
ELECTRODETYPE	SELECTOR	0	Electrode Type
STRIPPING	TOGGLE	F	Used for Stripping
VSTEP0	POTEN	0.00000E+000	F	Step &1 (V)
TSTEP0	QUANT	2.80000E+002	Time &1 (s)
VSTEP1	POTEN	2.00000E-001	F	Step &2 (V)
TSTEP1	QUANT	2.80000E+002	Time &2 (s)
VSTEP2	POTEN	4.00000E-001	F	Step &3 (V)
TSTEP2	QUANT	2.80000E+002	Time &3 (s)
VSTEP3	POTEN	6.00000E-001	F	Step &4 (V)
TSTEP3	QUANT	2.80000E+002	Time &4 (s)
VSTEP4	POTEN	8.00000E-001	F	Step &5 (V)
TSTEP4	QUANT	2.80000E+002	Time &5 (s)
VSTEP5	POTEN	1.00000E+000	F	Step &6 (V)
TSTEP5	QUANT	2.80000E+002	Time &6 (s)
SAMPLETIME	QUANT	2.00000E-001	Sa&mple Period (s)
CONDIT	TWOPARAM	T	3.00000E+001	0.00000E+000	Conditionin&g	Time(s)	E(V)
DELAY	TWOPARAM	F	3.00000E+002	1.00000E-001	Init. De&lay	Time(s)	Stab.(mV/s)
EQDELAY	QUANT	0.00000E+000	Equil. &Time (s)
ILIMIT	QUANT	1.00000E+001	Limit &I (mA/cm^2)
IRANGE	QUANT	5.00000E+003	&Max Current (mA)
IRCOMP	SELECTOR	0	IRCom&p
PFCOR	QUANT	5.00000E+001	PF Corr. (ohm)
EOC	QUANT	0	Open Circuit (V)
PSTATMODEL	IQUANT	53	Pstat Model
PSTATSECTION	LABEL	IFC5000-19505	Pstat Section
PSTATSERIALNO	LABEL	19505	Pstat Serial Number
CTRLMODE	IQUANT	1	Control Mode
ELECTROMETER	IQUANT	0	RE=0 or CS=1
IESTAB	IQUANT	2	I/E Stability
CASPEED	IQUANT	4	Control Amp Speed
CONVENTION	IQUANT	1	Current Convention
ICHRANGE	IQUANT	2	Ich Range
ICHRANGEMODE	TOGGLE	F	Ich Auto Range
ICHOFFSETENABLE	TOGGLE	F	Ich Offset Enable
ICHOFFSET	QUANT	0	Ich Offset (V)
ICHFILTER	IQUANT	3	Ich Filter
VCHRANGE	IQUANT	2	Vch Range
VCHRANGEMODE	TOGGLE	F	Vch Auto Range
VCHOFFSETENABLE	TOGGLE	F	Vch Offset Enable
VCHOFFSET	QUANT	0	Vch Offset (V)
VCHFILTER	IQUANT	3	Vch Filter
IERANGELOWERLIMIT	IQUANT	7	I/E Range Lower Limit
IERANGEMODE	TOGGLE	T	I/E AutoRange
IERANGE	IQUANT	12	I/E Range
ACHSELECT	IQUANT	4	Ach Select
ACHRANGE	IQUANT	2	Ach Range
ACHOFFSETENABLE	TOGGLE	F	Ach Offset Enable
ACHOFFSET	QUANT	0	Ach Offset (V)
ACHFILTER	IQUANT	1	Ach Filter
SENSECABLEID	IQUANT	14	Sense Cable ID
PWRCABLEID	IQUANT	7	Power Cable ID
DCCALDATE	LABEL	8/4/2025	DC Calibration Date
ACCALDATE	LABEL	3/7/2024	AC Calibration Date
FRAMEWORKVERSION	LABEL	7.10.3	Framework Version
INSTRUMENTVERSION	LABEL	4.91	Instrument Version
COMMVERSION	LABEL	3.10	Communications Version
CPUPLDVERSION	LABEL	5.50	CPU PLD Version
CTRLPLDVERSION	LABEL	0.00	CTRL PLD Version
PSTATPLDVERSION	LABEL	0.00	PSTAT PLD Version
Curve	TABLE	7493
	Pt	T	Vf	Im	Vu	Sig	Ach	IERange	Over	Temp
	#	s	V vs. Ref.	A	V	V	V	#	bits	deg C
	0	0.2	-5.42297E-004	-8.63387E-004	0.00000E+000	0.00000E+000	-4.98494E-004	12	...........	1573.18
	75	15.2	-5.53634E-004	1.04658E-008	0.00000E+000	0.00000E+000	-5.04079E-004	7	...........	1572.60
	150	30.2	-5.90563E-004	-6.47500E-008	0.00000E+000	0.00000E+000	-5.11416E-004	7	...........	1572.60
	225	45.2	-5.55385E-004	1.81395E-008	0.00000E+000	0.00000E+000	-5.08248E-004	7	...........	1572.60
	300	60.2	-5.30127E-004	1.60002E-008	0.00000E+000	0.00000E+000	-4.73816E-004	7	...........	1572.60
	375	75.2	-5.59136E-004	-4.54846E-008	0.00000E+000	0.00000E+000	-4.86822E-004	7	...........	1572.60
	450	90.2	-5.71307E-004	2.45555E-008	0.00000E+000	0.00000E+000	-4.85155E-004	7	...........	1572.60
	525	105.2	-5.02284E-004	-3.44950E-008	0.00000E+000	0.00000E+000	-5.06164E-004	7	...........	1572.60
	600	120.2	-5.63721E-004	-3.31024E-008	0.00000E+000	0.00000E+000	-4.84654E-004	7	...........	1572.60
	675	135.2	-5.34128E-004	2.86619E-008	0.00000E+000	0.00000E+000	-5.04496E-004	7	...........	1572.60
	750	150.2	-5.25458E-004	-2.68866E-008	0.00000E+000	0.00000E+000	-4.80402E-004	7	...........	1572.60
	825	165.2	-5.52801E-004	3.24525E-008	0.00000E+000	0.00000E+000	-5.16501E-004	7	...........	1572.60
	900	180.2	-5.29960E-004	3.00649E-008	0.00000E+000	0.00000E+000	-4.97910E-004	7	...........	1572.60
	975	195.2	-5.19957E-004	-2.03962E-008	0.00000E+000	0.00000E+000	-5.12083E-004	7	...........	1572.60
	1050	210.2	-5.12788E-004	3.25540E-008	0.00000E+000	0.00000E+000	-5.21087E-004	7	...........	1572.60
	1125	225.2	-5.37629E-004	-1.56106E-008	0.00000E+000	0.00000E+000	-4.88906E-004	7	...........	1572.60
	1200	240.2	-5.25709E-004	-1.56864E-008	0.00000E+000	0.00000E+000	-4.85488E-004	7	...........	1572.60
	1275	255.2	-5.23875E-004	3.32827E-008	0.00000E+000	0.00000E+000	-4.83237E-004	7	...........	1572.60
	1350	270.2	-5.48633E-004	-1.26807E-008	0.00000E+000	0.00000E+000	-5.18502E-004	7	...........	1572.60
	1425	285.2	1.99404E-001	3.11902E-007	0.00000E+000	2.00014E-001	-4.94492E-004	7	...........	1572.60
	1500	300.2	1.99411E-001	1.79624E-007	0.00000E+000	2.00014E-001	-5.07331E-004	7	...........	1572.60
	1575	315.2	1.99398E-001	4.94207E-008	0.00000E+000	2.00014E-001	-5.18419E-004	7	...........	1572.60
	1650	330.2	1.99375E-001	1.36382E-007	0.00000E+000	2.00014E-001	-5.08998E-004	7	...........	1572.60
	1725	345.2	1.99421E-001	3.33605E-008	0.00000E+000	2.00014E-001	-5.02329E-004	7	...........	1572.60
	1800	360.2	1.99428E-001	2.69271E-008	0.00000E+000	2.00014E-001	-5.03412E-004	7	...........	1572.60
	1875	375.2	1.99422E-001	1.14829E-007	0.00000E+000	2.00014E-001	-5.40595E-004	7	...........	1572.60
	1950	390.2	1.99361E-001	2.28000E-008	0.00000E+000	2.00014E-001	-5.01495E-004	7	...........	1572.60
	2025	405.2	1.99431E-001	1.09544E-007	0.00000E+000	2.00014E-001	-5.11499E-004	7	...........	1572.60
	2100	420.2	1.99375E-001	1.04881E-007	0.00000E+000	2.00014E-001	-5.24755E-004	7	...........	1572.60
	2175	435.2	1.99396E-001	1.81513E-008	0.00000E+000	2.00014E-001	-4.94075E-004	7	...........	1572.60
	2250	450.2	1.99401E-001	1.01034E-007	0.00000E+000	2.00014E-001	-5.16418E-004	7	...........	1572.60
	2325	465.2	1.99386E-001	1.90969E-008	0.00000E+000	2.00014E-001	-4.91491E-004	7	...........	1572.60
	2400	480.2	1.99438E-001	1.61649E-008	0.00000E+000	2.00014E-001	-5.32258E-004	7	...........	1572.60
	2475	495.2	1.99426E-001	9.64590E-008	0.00000E+000	2.00014E-001	-5.00161E-004	7	...........	1572.60
	2550	510.2	1.99434E-001	1.65661E-008	0.00000E+000	2.00014E-001	-5.04830E-004	7	...........	1572.60
	2625	525.2	1.99449E-001	9.43085E-008	0.00000E+000	2.00014E-001	-4.91657E-004	7	...........	1572.60
	2700	540.2	1.99427E-001	9.18848E-008	0.00000E+000	2.00014E-001	-4.86155E-004	7	...........	1572.60
	2775	555.2	1.99415E-001	1.40735E-008	0.00000E+000	2.00014E-001	-4.93075E-004	7	...........	1572.60
	2850	570.2	3.99273E-001	3.53243E-007	0.00000E+000	3.99977E-001	-4.90740E-004	7	...........	1572.60
	2925	585.2	3.99300E-001	1.23491E-007	0.00000E+000	3.99977E-001	-4.91324E-004	7	...........	1572.60
	3000	600.2	3.99300E-001	9.63415E-008	0.00000E+000	3.99977E-001	-5.17585E-004	7	...........	1572.60
	3075	615.2	3.99275E-001	2.33955E-007	0.00000E+000	3.99977E-001	-5.02329E-004	7	...........	1572.60
	3150	630.2	3.99270E-001	7.90966E-008	0.00000E+000	3.99977E-001	-5.07664E-004	7	...........	1572.60
	3225	645.2	3.99281E-001	2.18406E-007	0.00000E+000	3.99977E-001	-4.84571E-004	7	...........	1572.60
	3300	660.2	3.99292E-001	2.07870E-007	0.00000E+000	3.99977E-001	-5.01161E-004	7	...........	1572.60
	3375	675.2	3.99268E-001	5.37808E-008	0.00000E+000	3.99977E-001	-4.95742E-004	7	...........	1572.60
	3450	690.2	3.99305E-001	1.88435E-007	0.00000E+000	3.99977E-001	-4.92408E-004	7	...........	1572.60
	3525	705.2	3.99313E-001	4.71771E-008	0.00000E+000	3.99977E-001	-4.98244E-004	7	...........	1572.60
	3600	720.2	3.99312E-001	4.50113E-008	0.00000E+000	3.99977E-001	-4.77485E-004	7	...........	1572.60
	3675	735.2	3.99275E-001	1.77318E-007	0.00000E+000	3.99977E-001	-5.13167E-004	7	...........	1572.60
	3750	750.2	3.99287E-001	3.96013E-008	0.00000E+000	3.99977E-001	-4.92241E-004	7	...........	1572.60
	3825	765.2	3.99314E-001	1.75495E-007	0.00000E+000	3.99977E-001	-5.08331E-004	7	...........	1572.60
	3900	780.2	3.99308E-001	1.66980E-007	0.00000E+000	3.99977E-001	-5.03579E-004	7	...........	1572.60
	3975	795.2	3.99300E-001	3.40607E-008	0.00000E+000	3.99977E-001	-4.79235E-004	7	...........	1572.60
	4050	810.2	3.99284E-001	1.63110E-007	0.00000E+000	3.99977E-001	-4.95492E-004	7	...........	1572.70
	4125	825.2	3.99283E-001	3.58726E-008	0.00000E+000	3.99977E-001	-5.11499E-004	7	...........	1572.70
	4200	840.2	5.99234E-001	2.45625E-006	0.00000E+000	5.99991E-001	-4.93575E-004	7	...........	1572.70
	4275	855.2	5.99235E-001	5.47179E-007	0.00000E+000	5.99991E-001	-5.19169E-004	7	...........	1572.70
	4350	870.2	5.99217E-001	2.26112E-007	0.00000E+000	5.99991E-001	-4.98911E-004	7	...........	1572.60
	4425	885.2	5.99233E-001	4.43283E-007	0.00000E+000	5.99991E-001	-4.93658E-004	7	...........	1572.60
	4500	900.2	5.99272E-001	3.99279E-007	0.00000E+000	5.99991E-001	-4.84488E-004	7	...........	1572.60
	4575	915.2	5.99253E-001	1.45600E-007	0.00000E+000	5.99991E-001	-5.21837E-004	7	...........	1572.70
	4650	930.2	5.99212E-001	3.70380E-007	0.00000E+000	5.99991E-001	-5.01828E-004	7	...........	1572.60
	4725	945.2	5.99247E-001	1.30918E-007	0.00000E+000	5.99991E-001	-5.21754E-004	7	...........	1572.70
	4800	960.2	5.99224E-001	1.12785E-007	0.00000E+000	5.99991E-001	-5.01078E-004	7	...........	1572.60
	4875	975.2	5.99232E-001	3.30082E-007	0.00000E+000	5.99991E-001	-5.48932E-004	7	...........	1572.60
	4950	990.2	5.99229E-001	1.05470E-007	0.00000E+000	5.99991E-001	-5.16668E-004	7	...........	1572.70
	5025	1005.2	5.99233E-001	3.17755E-007	0.00000E+000	5.99991E-001	-5.24172E-004	7	...........	1572.60
	5100	1020.2	5.99215E-001	3.04850E-007	0.00000E+000	5.99991E-001	-5.17335E-004	7	...........	1572.60
	5175	1035.2	5.99244E-001	9.16074E-008	0.00000E+000	5.99991E-001	-5.19336E-004	7	...........	1572.60
	5250	1050.2	5.99266E-001	2.99791E-007	0.00000E+000	5.99991E-001	-5.09665E-004	7	...........	1572.60
	5325	1065.2	5.99230E-001	9.40603E-008	0.00000E+000	5.99991E-001	-4.90490E-004	7	...........	1572.70
	5400	1080.2	5.99243E-001	8.02653E-008	0.00000E+000	5.99991E-001	-5.00244E-004	7	...........	1572.70
	5475	1095.2	5.99231E-001	2.82981E-007	0.00000E+000	5.99991E-001	-4.96493E-004	7	...........	1572.70
	5550	1110.2	5.99219E-001	7.96834E-008	0.00000E+000	5.99991E-001	-4.83404E-004	7	...........	1572.60
	5625	1125.2	7.99221E-001	1.12880E-006	0.00000E+000	8.00004E-001	-4.93075E-004	7	...........	1572.60
	5700	1140.2	7.99195E-001	8.46956E-007	0.00000E+000	8.00004E-001	-5.28507E-004	7	...........	1572.60
	5775	1155.2	7.99232E-001	3.89580E-007	0.00000E+000	8.00004E-001	-5.05330E-004	7	...........	1572.60
	5850	1170.2	7.99213E-001	7.04105E-007	0.00000E+000	8.00004E-001	-5.12000E-004	7	...........	1572.60
	5925	1185.2	7.99215E-001	3.31871E-007	0.00000E+000	8.00004E-001	-5.17419E-004	7	...........	1572.60
	6000	1200.2	7.99200E-001	2.85914E-007	0.00000E+000	8.00004E-001	-5.13917E-004	7	...........	1572.60
	6075	1215.2	7.99187E-001	6.29738E-007	0.00000E+000	8.00004E-001	-5.19586E-004	7	...........	1572.60
	6150	1230.2	7.99201E-001	2.70591E-007	0.00000E+000	8.00004E-001	-4.72816E-004	7	...........	1572.60
	6225	1245.2	7.99207E-001	6.02615E-007	0.00000E+000	8.00004E-001	-5.10332E-004	7	...........	1572.60
	6300	1260.2	7.99184E-001	5.75583E-007	0.00000E+000	8.00004E-001	-5.22588E-004	7	...........	1572.60
	6375	1275.2	7.99190E-001	2.31424E-007	0.00000E+000	8.00004E-001	-5.25339E-004	7	...........	1572.60
	6450	1290.2	7.99204E-001	5.60057E-007	0.00000E+000	8.00004E-001	-5.19253E-004	7	...........	1572.60
	6525	1305.2	7.99193E-001	2.46985E-007	0.00000E+000	8.00004E-001	-4.91324E-004	7	...........	1572.70
	6600	1320.2	7.99167E-001	2.18356E-007	0.00000E+000	8.00004E-001	-5.07748E-004	7	...........	1572.70
	6675	1335.2	7.99214E-001	5.36854E-007	0.00000E+000	8.00004E-001	-5.07748E-004	7	...........	1572.60
	6750	1350.2	7.99208E-001	2.13561E-007	0.00000E+000	8.00004E-001	-5.20670E-004	7	...........	1572.70
	6825	1365.2	7.99180E-001	5.30498E-007	0.00000E+000	8.00004E-001	-4.81403E-004	7	...........	1572.60
	6900	1380.2	7.99215E-001	5.16043E-007	0.00000E+000	8.00004E-001	-5.20920E-004	7	...........	1572.70
	6975	1395.2	7.99183E-001	1.98049E-007	0.00000E+000	8.00004E-001	-5.14501E-004	7	...........	1572.70
	7050	1410.2	9.99184E-001	1.60109E-006	0.00000E+000	1.00002E+000	-5.01161E-004	7	...........	1572.60
	7125	1425.2	9.99176E-001	8.55567E-007	0.00000E+000	1.00002E+000	-5.13417E-004	7	...........	1572.70
	7200	1440.2	9.99164E-001	7.25355E-007	0.00000E+000	1.00002E+000	-4.97660E-004	7	...........	1572.70
	7275	1455.2	9.99139E-001	1.23851E-006	0.00000E+000	1.00002E+000	-5.08248E-004	7	...........	1572.70
	7350	1470.2	9.99152E-001	6.58592E-007	0.00000E+000	1.00002E+000	-4.97993E-004	7	...........	1572.70
	7425	1485.2	9.99157E-001	5.95362E-007	0.00000E+000	1.00002E+000	-5.04246E-004	7	...........	1572.70
	7492	1498.6	9.99138E-001	5.63875E-007	0.00000E+000	1.00002E+000	-4.87739E-004	7	...........	1572.70